"Current (A) Run #33","Voltage (V) Run #33","Electron current (pA) Run #33"
-2.670E-14,0.356,0.027
-2.460E-14,0.352,0.025
-2.401E-14,0.346,0.024
-2.198E-14,0.346,0.022
-2.734E-14,0.339,0.027
-2.587E-14,0.332,0.026
-2.460E-14,0.329,0.025
-2.239E-14,0.324,0.022
-2.201E-14,0.319,0.022
-2.709E-14,0.329,0.027
-2.714E-14,0.390,0.027
-2.955E-14,0.471,0.030
-2.968E-14,0.549,0.030
-2.902E-14,0.657,0.029
-2.744E-14,0.759,0.027
-2.493E-14,0.863,0.025
-2.675E-14,0.939,0.027
-2.314E-14,1.003,0.023
-2.645E-14,1.064,0.026
-2.664E-14,1.120,0.027
-3.038E-14,1.130,0.030
-2.834E-14,1.122,0.028
-2.603E-14,1.102,0.026
-2.726E-14,1.090,0.027
-2.805E-14,1.101,0.028
-2.933E-14,1.177,0.029
-3.074E-14,1.349,0.031
-3.213E-14,1.599,0.032
-3.251E-14,1.729,0.033
-3.046E-14,1.748,0.030
-3.469E-14,1.855,0.035
-3.307E-14,2.036,0.033
-3.619E-14,2.094,0.036
-3.695E-14,2.157,0.037
-3.477E-14,2.333,0.035
-3.605E-14,2.402,0.036
-3.817E-14,2.504,0.038
-3.903E-14,2.685,0.039
-3.915E-14,2.763,0.039
-4.088E-14,2.915,0.041
-3.970E-14,3.101,0.040
-3.782E-14,3.197,0.038
-4.027E-14,3.426,0.040
-4.143E-14,3.587,0.041
-3.671E-14,3.733,0.037
-3.583E-14,4.040,0.036
-3.485E-14,4.195,0.035
-3.325E-14,4.270,0.033
-3.445E-14,4.514,0.034
-2.759E-14,4.718,0.028
-3.082E-14,4.808,0.031
-3.755E-14,4.976,0.038
-3.274E-14,5.122,0.033
-3.724E-14,5.195,0.037
-3.826E-14,5.341,0.038
-3.287E-14,5.465,0.033
-3.285E-14,5.521,0.033
-3.643E-14,5.692,0.036
-3.224E-14,5.802,0.032
-3.561E-14,5.864,0.036
-3.513E-14,5.978,0.035
-3.741E-14,6.048,0.037
-3.544E-14,6.104,0.035
-3.431E-14,6.325,0.034
-3.401E-14,6.461,0.034
-3.549E-14,6.527,0.035
-3.679E-14,6.658,0.037
-3.562E-14,6.723,0.036
-3.960E-14,6.739,0.040
-4.020E-14,6.847,0.040
-3.840E-14,6.930,0.038
-3.506E-14,6.977,0.035
-4.012E-14,7.114,0.040
-3.638E-14,7.205,0.036
-3.522E-14,7.304,0.035
-3.474E-14,7.513,0.035
-3.495E-14,7.620,0.035
-3.489E-14,7.776,0.035
-3.069E-14,7.963,0.031
-3.651E-14,8.055,0.037
-3.461E-14,8.337,0.035
-3.652E-14,8.581,0.037
-3.783E-14,8.727,0.038
-3.490E-14,8.944,0.035
-3.878E-14,9.052,0.039
-4.397E-14,9.165,0.044
-3.658E-14,9.368,0.037
-3.368E-14,9.461,0.034
-3.708E-14,9.604,0.037
-3.820E-14,9.809,0.038
-3.595E-14,9.896,0.036
-3.217E-14,10.023,0.032
-2.775E-14,10.118,0.028
-3.243E-14,10.143,0.032
-3.149E-14,10.273,0.031
-3.220E-14,10.379,0.032
-3.357E-14,10.475,0.034
-3.752E-14,10.655,0.038
-4.159E-14,10.743,0.042
-4.180E-14,10.923,0.042
-4.388E-14,11.073,0.044
-4.774E-14,11.177,0.048
-6.106E-14,11.344,0.061
-6.877E-14,11.425,0.069
-8.503E-14,11.601,0.085
-1.121E-13,11.757,0.112
-1.460E-13,11.857,0.146
-1.859E-13,12.101,0.186
-2.469E-13,12.261,0.247
-3.265E-13,12.351,0.326
-4.134E-13,12.446,0.413
-5.007E-13,12.478,0.501
-5.844E-13,12.534,0.584
-6.527E-13,12.612,0.653
-7.255E-13,12.639,0.725
-7.905E-13,12.646,0.790
-8.436E-13,12.720,0.844
-8.957E-13,12.821,0.896
-9.610E-13,12.952,0.961
-1.064E-12,13.028,1.064
-1.188E-12,13.054,1.188
-1.300E-12,13.073,1.300
-1.401E-12,13.145,1.401
-1.497E-12,13.268,1.497
-1.623E-12,13.349,1.623
-1.762E-12,13.395,1.762
-1.911E-12,13.440,1.911
-2.048E-12,13.457,2.048
-2.157E-12,13.464,2.157
-2.243E-12,13.467,2.243
-2.301E-12,13.499,2.301
-2.357E-12,13.547,2.357
-2.417E-12,13.591,2.417
-2.494E-12,13.635,2.494
-2.583E-12,13.673,2.583
-2.683E-12,13.683,2.683
-2.777E-12,13.693,2.777
-2.854E-12,13.713,2.854
-2.913E-12,13.768,2.913
-2.983E-12,13.835,2.983
-3.073E-12,13.905,3.073
-3.203E-12,13.932,3.203
-3.341E-12,13.940,3.341
-3.473E-12,13.946,3.473
-3.566E-12,13.944,3.566
-3.630E-12,13.954,3.630
-3.674E-12,13.991,3.674
-3.724E-12,14.062,3.724
-3.817E-12,14.146,3.817
-3.960E-12,14.170,3.960
-4.112E-12,14.172,4.112
-4.249E-12,14.175,4.249
-4.350E-12,14.177,4.350
-4.414E-12,14.202,4.414
-4.458E-12,14.228,4.458
-4.525E-12,14.301,4.525
-4.622E-12,14.376,4.622
-4.774E-12,14.484,4.774
-5.008E-12,14.601,5.008
-5.340E-12,14.655,5.340
-5.711E-12,14.676,5.711
-6.023E-12,14.683,6.023
-6.258E-12,14.687,6.258
-6.420E-12,14.687,6.420
-6.518E-12,14.722,6.518
-6.600E-12,14.796,6.600
-6.732E-12,14.849,6.732
-6.908E-12,14.865,6.908
-7.095E-12,14.877,7.095
-7.264E-12,14.876,7.264
-7.388E-12,14.889,7.388
-7.482E-12,14.950,7.482
-7.588E-12,15.061,7.588
-7.804E-12,15.108,7.804
-8.079E-12,15.130,8.079
-8.351E-12,15.138,8.351
-8.579E-12,15.138,8.579
-8.733E-12,15.141,8.733
-8.826E-12,15.155,8.826
-8.887E-12,15.203,8.887
-8.970E-12,15.228,8.970
-9.088E-12,15.281,9.088
-9.256E-12,15.344,9.256
-9.480E-12,15.370,9.480
-9.720E-12,15.384,9.720
-9.920E-12,15.388,9.920
-1.006E-11,15.388,10.064
-1.016E-11,15.392,10.161
-1.022E-11,15.393,10.218
-1.024E-11,15.396,10.241
-1.025E-11,15.396,10.254
-1.026E-11,15.395,10.256
-1.026E-11,15.416,10.255
-1.026E-11,15.427,10.262
-1.029E-11,15.441,10.291
-1.033E-11,15.448,10.333
-1.038E-11,15.470,10.377
-1.041E-11,15.459,10.409
-1.043E-11,15.471,10.434
-1.046E-11,15.507,10.464
-1.052E-11,15.554,10.523
-1.064E-11,15.604,10.641
-1.080E-11,15.628,10.801
-1.099E-11,15.635,10.994
-1.117E-11,15.638,11.174
-1.131E-11,15.644,11.313
-1.140E-11,15.674,11.396
-1.148E-11,15.761,11.478
-1.163E-11,15.849,11.628
-1.189E-11,15.884,11.892
-1.221E-11,15.898,12.209
-1.250E-11,15.903,12.501
-1.273E-11,15.906,12.731
-1.287E-11,15.890,12.875
-1.296E-11,15.908,12.956
-1.299E-11,15.909,12.990
-1.299E-11,15.907,12.994
-1.299E-11,15.939,12.989
-1.302E-11,15.991,13.024
-1.312E-11,16.010,13.121
-1.327E-11,16.021,13.267
-1.340E-11,16.033,13.399
-1.351E-11,16.052,13.512
-1.361E-11,16.057,13.607
-1.368E-11,16.062,13.682
-1.374E-11,16.063,13.737
-1.377E-11,16.065,13.770
-1.379E-11,16.101,13.787
-1.383E-11,16.156,13.828
-1.394E-11,16.231,13.941
-1.415E-11,16.269,14.147
-1.441E-11,16.280,14.411
-1.466E-11,16.286,14.658
-1.485E-11,16.285,14.848
-1.497E-11,16.285,14.975
-1.504E-11,16.289,15.040
-1.506E-11,16.286,15.060
-1.506E-11,16.289,15.064
-1.505E-11,16.288,15.048
-1.503E-11,16.293,15.026
-1.500E-11,16.288,14.997
-1.497E-11,16.289,14.973
-1.495E-11,16.300,14.948
-1.493E-11,16.411,14.932
-1.504E-11,16.503,15.045
-1.533E-11,16.539,15.334
-1.569E-11,16.608,15.692
-1.608E-11,16.719,16.084
-1.654E-11,16.808,16.542
-1.708E-11,16.890,17.079
-1.766E-11,17.027,17.661
-1.830E-11,17.160,18.297
-1.906E-11,17.300,19.055
-1.990E-11,17.366,19.901
-2.072E-11,17.389,20.715
-2.142E-11,17.401,21.422
-2.192E-11,17.430,21.923
-2.227E-11,17.483,22.270
-2.254E-11,17.488,22.536
-2.276E-11,17.503,22.756
-2.293E-11,17.520,22.926
-2.305E-11,17.566,23.053
-2.320E-11,17.594,23.199
-2.336E-11,17.603,23.357
-2.349E-11,17.610,23.492
-2.359E-11,17.684,23.590
-2.373E-11,17.761,23.725
-2.395E-11,17.793,23.954
-2.422E-11,17.818,24.223
-2.448E-11,17.907,24.479
-2.478E-11,18.014,24.780
-2.520E-11,18.106,25.198
-2.569E-11,18.212,25.694
-2.625E-11,18.287,26.254
-2.686E-11,18.364,26.858
-2.744E-11,18.417,27.445
-2.796E-11,18.470,27.957
-2.840E-11,18.513,28.405
-2.879E-11,18.529,28.793
-2.909E-11,18.535,29.092
-2.927E-11,18.536,29.274
-2.936E-11,18.544,29.360
-2.937E-11,18.535,29.375
-2.934E-11,18.546,29.337
-2.929E-11,18.611,29.287
-2.930E-11,18.670,29.301
-2.940E-11,18.701,29.399
-2.956E-11,18.778,29.564
-2.979E-11,18.856,29.786
-3.007E-11,18.885,30.073
-3.036E-11,18.905,30.359
-3.059E-11,18.934,30.592
-3.078E-11,18.979,30.776
-3.095E-11,19.011,30.950
-3.110E-11,19.021,31.099
-3.122E-11,19.066,31.216
-3.133E-11,19.081,31.327
-3.142E-11,19.089,31.420
-3.149E-11,19.099,31.486
-3.152E-11,19.120,31.521
-3.153E-11,19.165,31.532
-3.157E-11,19.230,31.574
-3.168E-11,19.278,31.683
-3.185E-11,19.327,31.854
-3.206E-11,19.376,32.065
-3.229E-11,19.410,32.288
-3.250E-11,19.458,32.502
-3.271E-11,19.507,32.708
-3.293E-11,19.598,32.928
-3.319E-11,19.677,33.185
-3.350E-11,19.710,33.498
-3.382E-11,19.745,33.817
-3.410E-11,19.835,34.097
-3.438E-11,19.922,34.381
-3.473E-11,19.999,34.726
-3.510E-11,20.064,35.103
-3.547E-11,20.110,35.473
-3.581E-11,20.160,35.811
-3.610E-11,20.206,36.102
-3.636E-11,20.282,36.361
-3.663E-11,20.357,36.630
-3.693E-11,20.427,36.934
-3.725E-11,20.480,37.248
-3.755E-11,20.526,37.546
-3.782E-11,20.585,37.820
-3.806E-11,20.642,38.063
-3.830E-11,20.715,38.296
-3.854E-11,20.799,38.538
-3.883E-11,20.882,38.828
-3.915E-11,20.922,39.152
-3.945E-11,20.952,39.449
-3.969E-11,20.997,39.688
-3.987E-11,21.023,39.874
-4.001E-11,21.041,40.010
-4.010E-11,21.056,40.098
-4.015E-11,21.076,40.148
-4.017E-11,21.136,40.170
-4.022E-11,21.183,40.216
-4.029E-11,21.200,40.288
-4.038E-11,21.238,40.378
-4.046E-11,21.283,40.464
-4.056E-11,21.371,40.556
-4.071E-11,21.422,40.706
-4.088E-11,21.442,40.882
-4.104E-11,21.464,41.038
-4.115E-11,21.474,41.152
-4.121E-11,21.478,41.209
-4.121E-11,21.482,41.215
-4.118E-11,21.501,41.184
-4.114E-11,21.571,41.145
-4.115E-11,21.644,41.146
-4.123E-11,21.672,41.227
-4.133E-11,21.685,41.333
-4.142E-11,21.689,41.420
-4.147E-11,21.693,41.467
-4.146E-11,21.690,41.465
-4.143E-11,21.691,41.427
-4.136E-11,21.691,41.362
-4.128E-11,21.691,41.282
-4.120E-11,21.692,41.196
-4.110E-11,21.705,41.101
-4.102E-11,21.750,41.019
-4.097E-11,21.776,40.970
-4.096E-11,21.818,40.956
-4.099E-11,21.878,40.989
-4.106E-11,21.945,41.060
-4.118E-11,22.022,41.177
-4.133E-11,22.094,41.335
-4.152E-11,22.132,41.517
-4.169E-11,22.175,41.690
-4.185E-11,22.244,41.855
-4.201E-11,22.278,42.009
-4.215E-11,22.295,42.148
-4.226E-11,22.314,42.264
-4.234E-11,22.301,42.339
-4.237E-11,22.332,42.371
-4.238E-11,22.400,42.380
-4.241E-11,22.455,42.415
-4.249E-11,22.494,42.490
-4.259E-11,22.518,42.586
-4.268E-11,22.555,42.684
-4.277E-11,22.598,42.767
-4.284E-11,22.621,42.844
-4.291E-11,22.649,42.909
-4.297E-11,22.678,42.965
-4.301E-11,22.712,43.014
-4.306E-11,22.778,43.065
-4.313E-11,22.875,43.129
-4.323E-11,22.925,43.229
-4.335E-11,22.948,43.355
-4.347E-11,22.964,43.471
-4.356E-11,22.997,43.559
-4.362E-11,23.042,43.624
-4.369E-11,23.099,43.688
-4.375E-11,23.156,43.753
-4.383E-11,23.214,43.833
-4.392E-11,23.276,43.918
-4.402E-11,23.329,44.017
-4.412E-11,23.398,44.115
-4.422E-11,23.485,44.219
-4.433E-11,23.572,44.329
-4.445E-11,23.625,44.450
-4.457E-11,23.708,44.570
-4.469E-11,23.784,44.694
-4.481E-11,23.874,44.806
-4.491E-11,23.924,44.908
-4.501E-11,23.959,45.007
-4.508E-11,24.015,45.085
-4.515E-11,24.053,45.154
-4.522E-11,24.073,45.220
-4.528E-11,24.111,45.283
-4.534E-11,24.186,45.339
-4.539E-11,24.248,45.387
-4.544E-11,24.287,45.442
-4.549E-11,24.306,45.494
-4.554E-11,24.349,45.543
-4.558E-11,24.451,45.583
-4.563E-11,24.557,45.626
-4.566E-11,24.664,45.660
-4.568E-11,24.773,45.684
-4.570E-11,24.865,45.700
-4.571E-11,24.939,45.709
-4.572E-11,24.976,45.717
-4.573E-11,25.008,45.728
-4.575E-11,25.042,45.748
-4.578E-11,25.093,45.783
-4.582E-11,25.132,45.818
-4.585E-11,25.195,45.848
-4.587E-11,25.253,45.875
-4.590E-11,25.307,45.896
-4.591E-11,25.339,45.915
-4.593E-11,25.377,45.935
-4.596E-11,25.419,45.961
-4.599E-11,25.452,45.988
-4.602E-11,25.490,46.022
-4.605E-11,25.535,46.050
-4.608E-11,25.570,46.084
-4.611E-11,25.581,46.111
-4.615E-11,25.585,46.146
-4.619E-11,25.586,46.193
-4.626E-11,25.586,46.264
-4.634E-11,25.589,46.340
-4.643E-11,25.587,46.427
-4.651E-11,25.581,46.514
-4.661E-11,25.609,46.608
-4.669E-11,25.675,46.688
-4.674E-11,25.748,46.741
-4.675E-11,25.822,46.752
-4.674E-11,25.930,46.735
-4.668E-11,26.052,46.683
-4.660E-11,26.155,46.597
-4.648E-11,26.251,46.481
-4.636E-11,26.337,46.361
-4.625E-11,26.415,46.252
-4.616E-11,26.501,46.155
-4.608E-11,26.557,46.079
-4.603E-11,26.613,46.030
-4.601E-11,26.651,46.009
-4.602E-11,26.683,46.017
-4.606E-11,26.751,46.055
-4.610E-11,26.806,46.099
-4.615E-11,26.841,46.146
-4.620E-11,26.874,46.199
-4.626E-11,26.930,46.262
-4.634E-11,26.967,46.340
-4.642E-11,27.016,46.422
-4.651E-11,27.049,46.509
-4.661E-11,27.068,46.612
-4.672E-11,27.086,46.721
-4.684E-11,27.141,46.841
-4.696E-11,27.170,46.961
-4.708E-11,27.190,47.079
-4.720E-11,27.211,47.202
-4.734E-11,27.232,47.340
-4.747E-11,27.260,47.472
-4.761E-11,27.287,47.613
-4.775E-11,27.312,47.749
-4.789E-11,27.343,47.890
-4.803E-11,27.384,48.029
-4.818E-11,27.426,48.180
-4.834E-11,27.465,48.335
-4.850E-11,27.510,48.500
-4.867E-11,27.546,48.668
-4.884E-11,27.582,48.837
-4.901E-11,27.638,49.015
-4.920E-11,27.677,49.201
-4.940E-11,27.697,49.397
-4.960E-11,27.718,49.604
-4.981E-11,27.771,49.813
-5.003E-11,27.823,50.025
-5.027E-11,27.870,50.270
-5.054E-11,27.926,50.540
-5.082E-11,27.953,50.817
-5.110E-11,27.963,51.102
-5.138E-11,27.973,51.376
-5.164E-11,27.995,51.636
-5.188E-11,28.041,51.884
-5.214E-11,28.089,52.144
-5.244E-11,28.153,52.441
-5.279E-11,28.213,52.786
-5.316E-11,28.284,53.158
-5.359E-11,28.342,53.589
-5.406E-11,28.398,54.063
-5.459E-11,28.438,54.589
-5.511E-11,28.481,55.115
-5.559E-11,28.486,55.595
-5.603E-11,28.502,56.035
-5.646E-11,28.524,56.456
-5.685E-11,28.535,56.850
-5.722E-11,28.540,57.224
-5.756E-11,28.561,57.557
-5.786E-11,28.618,57.863
-5.824E-11,28.684,58.240
-5.870E-11,28.719,58.701
-5.921E-11,28.736,59.211
-5.972E-11,28.745,59.718
-6.019E-11,28.781,60.186
-6.061E-11,28.812,60.613
-6.103E-11,28.846,61.028
-6.147E-11,28.911,61.470
-6.199E-11,28.975,61.987
-6.261E-11,29.030,62.614
-6.329E-11,29.087,63.294
-6.404E-11,29.166,64.041
-6.495E-11,29.242,64.945
-6.601E-11,29.325,66.009
-6.702E-11,29.410,67.020
-6.812E-11,29.473,68.123
-6.925E-11,29.529,69.255
-7.035E-11,29.549,70.354
-7.131E-11,29.566,71.308
-7.212E-11,29.561,72.123
-7.273E-11,29.567,72.727
-7.318E-11,29.570,73.180
-7.351E-11,29.553,73.515
-7.379E-11,29.573,73.789
-7.403E-11,29.580,74.029
-7.426E-11,29.584,74.257
-7.447E-11,29.605,74.470
-7.472E-11,29.634,74.718
-7.503E-11,29.668,75.028
-7.542E-11,29.742,75.425
-7.602E-11,29.841,76.020
-7.686E-11,29.949,76.860
-7.800E-11,30.024,77.996
-7.931E-11,30.109,79.311
-8.070E-11,30.181,80.703
-8.209E-11,30.222,82.087
-8.334E-11,30.245,83.340
-8.441E-11,30.301,84.410
-8.533E-11,30.336,85.330
-8.620E-11,30.393,86.201
-8.706E-11,30.488,87.056
-8.808E-11,30.554,88.078
-8.921E-11,30.602,89.208
-9.037E-11,30.644,90.372
-9.146E-11,30.699,91.460
-9.248E-11,30.746,92.478
-9.344E-11,30.778,93.441
-9.431E-11,30.847,94.305
-9.518E-11,30.897,95.178
-9.608E-11,30.942,96.082
-9.698E-11,31.028,96.981
-9.798E-11,31.088,97.978
-9.903E-11,31.178,99.028
-1.002E-10,31.330,100.195
-1.016E-10,31.474,101.626
-1.033E-10,31.595,103.343
-1.052E-10,31.687,105.217
-1.071E-10,31.768,107.079
-1.088E-10,31.828,108.788
-1.103E-10,31.883,110.271
-1.115E-10,31.936,111.526
-1.126E-10,31.995,112.575
-1.135E-10,32.041,113.523
-1.144E-10,32.091,114.355
-1.152E-10,32.152,115.168
-1.159E-10,32.198,115.938
-1.167E-10,32.245,116.676
-1.174E-10,32.291,117.407
-1.181E-10,32.333,118.072
-1.187E-10,32.371,118.682
-1.193E-10,32.440,119.257
-1.199E-10,32.536,119.862
-1.206E-10,32.617,120.582
-1.214E-10,32.699,121.396
-1.222E-10,32.780,122.246
-1.231E-10,32.849,123.127
-1.239E-10,32.922,123.941
-1.247E-10,32.978,124.718
-1.254E-10,33.041,125.407
-1.260E-10,33.113,126.034
-1.267E-10,33.194,126.652
-1.272E-10,33.286,127.238
-1.278E-10,33.354,127.816
-1.284E-10,33.427,128.385
-1.289E-10,33.506,128.940
-1.294E-10,33.581,129.436
-1.299E-10,33.659,129.896
-1.303E-10,33.707,130.332
-1.307E-10,33.720,130.724
-1.310E-10,33.727,131.029
-1.313E-10,33.730,131.267
-1.315E-10,33.731,131.453
-1.316E-10,33.730,131.599
-1.317E-10,33.727,131.708
-1.318E-10,33.730,131.805
-1.319E-10,33.729,131.886
-1.320E-10,33.751,131.966
-1.320E-10,33.844,132.038
-1.321E-10,33.929,132.139
-1.323E-10,34.032,132.265
-1.324E-10,34.100,132.399
-1.325E-10,34.205,132.522
-1.326E-10,34.314,132.618
-1.327E-10,34.404,132.663
-1.326E-10,34.476,132.644
-1.326E-10,34.543,132.588
-1.325E-10,34.618,132.503
-1.324E-10,34.716,132.382
-1.322E-10,34.772,132.207
-1.320E-10,34.799,132.022
-1.319E-10,34.827,131.854
-1.317E-10,34.871,131.738
-1.316E-10,34.927,131.648
-1.315E-10,35.015,131.540
-1.314E-10,35.063,131.352
-1.311E-10,35.102,131.103
-1.309E-10,35.129,130.860
-1.307E-10,35.149,130.662
-1.305E-10,35.202,130.522
-1.304E-10,35.285,130.366
-1.301E-10,35.337,130.132
-1.298E-10,35.406,129.833
-1.295E-10,35.467,129.462
-1.290E-10,35.525,129.039
-1.286E-10,35.595,128.582
-1.281E-10,35.632,128.101
-1.277E-10,35.683,127.657
-1.272E-10,35.743,127.222
-1.268E-10,35.809,126.764
-1.262E-10,35.857,126.247
-1.257E-10,35.928,125.723
-1.252E-10,36.020,125.166
-1.245E-10,36.144,124.451
-1.235E-10,36.277,123.506
-1.222E-10,36.396,122.238
-1.207E-10,36.470,120.740
-1.193E-10,36.506,119.252
-1.180E-10,36.547,117.986
-1.170E-10,36.619,117.001
-1.162E-10,36.688,116.162
-1.153E-10,36.767,115.333
-1.144E-10,36.832,114.410
-1.135E-10,36.908,113.464
-1.124E-10,36.992,112.449
-1.114E-10,37.085,111.386
-1.102E-10,37.145,110.210
-1.090E-10,37.227,109.044
-1.079E-10,37.301,107.896
-1.067E-10,37.344,106.748
-1.057E-10,37.398,105.682
-1.047E-10,37.431,104.738
-1.040E-10,37.452,103.984
-1.034E-10,37.511,103.416
-1.029E-10,37.585,102.886
-1.023E-10,37.635,102.286
-1.016E-10,37.692,101.574
-1.008E-10,37.733,100.816
-1.001E-10,37.778,100.117
-9.945E-11,37.855,99.453
-9.874E-11,37.938,98.743
-9.796E-11,37.990,97.960
-9.712E-11,38.042,97.124
-9.634E-11,38.086,96.337
-9.566E-11,38.117,95.658
-9.508E-11,38.153,95.081
-9.464E-11,38.201,94.642
-9.426E-11,38.271,94.261
-9.385E-11,38.355,93.852
-9.332E-11,38.464,93.321
-9.268E-11,38.521,92.677
-9.204E-11,38.543,92.036
-9.153E-11,38.552,91.534
-9.122E-11,38.561,91.222
-9.113E-11,38.558,91.134
-9.122E-11,38.558,91.220
-9.142E-11,38.560,91.418
-9.167E-11,38.610,91.669
-9.185E-11,38.724,91.854
-9.191E-11,38.836,91.914
-9.187E-11,38.962,91.871
-9.181E-11,39.085,91.813
-9.188E-11,39.216,91.880
-9.217E-11,39.329,92.171
-9.276E-11,39.397,92.757
-9.360E-11,39.494,93.600
-9.466E-11,39.594,94.664
-9.603E-11,39.686,96.034
-9.766E-11,39.771,97.657
-9.949E-11,39.833,99.495
-1.015E-10,39.899,101.476
-1.035E-10,39.947,103.512
-1.055E-10,39.995,105.480
-1.074E-10,40.053,107.375
-1.093E-10,40.134,109.280
-1.114E-10,40.209,111.377
-1.137E-10,40.282,113.733
-1.163E-10,40.344,116.308
-1.189E-10,40.400,118.949
-1.216E-10,40.452,121.571
-1.241E-10,40.509,124.124
-1.266E-10,40.573,126.614
-1.291E-10,40.622,129.145
-1.317E-10,40.669,131.678
-1.342E-10,40.717,134.174
-1.366E-10,40.770,136.603
-1.390E-10,40.823,139.011
-1.415E-10,40.891,141.453
-1.440E-10,40.936,144.000
-1.466E-10,40.989,146.593
-1.492E-10,41.041,149.196
-1.518E-10,41.106,151.820
-1.545E-10,41.170,154.500
-1.573E-10,41.230,157.300
-1.602E-10,41.300,160.157
-1.631E-10,41.375,163.126
-1.662E-10,41.430,166.244
-1.694E-10,41.469,169.351
-1.723E-10,41.525,172.254
-1.750E-10,41.596,174.993
-1.778E-10,41.680,177.798
-1.808E-10,41.748,180.825
-1.841E-10,41.816,184.076
-1.873E-10,41.888,187.321
-1.906E-10,41.954,190.642
-1.940E-10,42.026,193.954
-1.972E-10,42.095,197.179
-2.003E-10,42.176,200.335
-2.035E-10,42.266,203.515
-2.069E-10,42.352,206.858
-2.104E-10,42.442,210.356
-2.139E-10,42.528,213.938
-2.175E-10,42.607,217.499
-2.210E-10,42.685,220.972
-2.243E-10,42.764,224.326
-2.276E-10,42.829,227.568
-2.305E-10,42.879,230.536
-2.332E-10,42.939,233.176
-2.355E-10,43.005,235.539
-2.378E-10,43.068,237.758
-2.399E-10,43.134,239.912
-2.420E-10,43.200,242.040
-2.442E-10,43.263,244.160
-2.462E-10,43.308,246.206
-2.481E-10,43.339,248.098
-2.497E-10,43.367,249.688
-2.509E-10,43.398,250.936
-2.520E-10,43.448,251.967
-2.529E-10,43.469,252.865
-2.537E-10,43.490,253.743
-2.545E-10,43.531,254.532
-2.553E-10,43.568,255.311
-2.561E-10,43.613,256.147
-2.570E-10,43.675,257.040
-2.581E-10,43.760,258.121
-2.594E-10,43.848,259.429
-2.610E-10,43.944,260.951
-2.626E-10,43.983,262.632
-2.642E-10,43.990,264.212
-2.654E-10,43.997,265.449
-2.662E-10,43.998,266.237
-2.666E-10,44.000,266.648
-2.668E-10,44.000,266.814
-2.669E-10,44.038,266.857
-2.670E-10,44.137,266.992
-2.675E-10,44.213,267.486
-2.683E-10,44.299,268.302
-2.694E-10,44.390,269.356
-2.705E-10,44.499,270.514
-2.717E-10,44.635,271.704
-2.728E-10,44.775,272.815
-2.738E-10,44.852,273.834
-2.746E-10,44.902,274.629
-2.752E-10,44.948,275.224
-2.756E-10,44.983,275.587
-2.758E-10,45.012,275.793
-2.759E-10,45.044,275.904
-2.760E-10,45.097,275.960
-2.760E-10,45.131,275.966
-2.759E-10,45.157,275.945
-2.759E-10,45.194,275.902
-2.758E-10,45.262,275.835
-2.757E-10,45.313,275.705
-2.755E-10,45.375,275.519
-2.753E-10,45.441,275.251
-2.749E-10,45.485,274.858
-2.744E-10,45.498,274.436
-2.741E-10,45.520,274.079
-2.738E-10,45.529,273.815
-2.736E-10,45.561,273.609
-2.734E-10,45.562,273.447
-2.733E-10,45.590,273.335
-2.732E-10,45.626,273.222
-2.731E-10,45.664,273.065
-2.728E-10,45.680,272.838
-2.726E-10,45.692,272.587
-2.724E-10,45.705,272.373
-2.722E-10,45.713,272.217
-2.721E-10,45.751,272.125
-2.720E-10,45.795,271.992
-2.717E-10,45.833,271.727
-2.713E-10,45.847,271.340
-2.709E-10,45.858,270.941
-2.706E-10,45.890,270.621
-2.703E-10,45.933,270.344
-2.700E-10,45.956,269.996
-2.696E-10,45.967,269.605
-2.692E-10,46.007,269.244
-2.689E-10,46.039,268.866
-2.684E-10,46.070,268.440
-2.680E-10,46.087,267.953
-2.675E-10,46.126,267.489
-2.670E-10,46.178,266.985
-2.664E-10,46.199,266.363
-2.657E-10,46.221,265.697
-2.650E-10,46.255,265.046
-2.644E-10,46.301,264.413
-2.637E-10,46.366,263.708
-2.627E-10,46.434,262.733
-2.615E-10,46.499,261.456
-2.599E-10,46.569,259.912
-2.581E-10,46.642,258.124
-2.562E-10,46.688,256.160
-2.542E-10,46.725,254.223
-2.525E-10,46.758,252.480
-2.509E-10,46.846,250.918
-2.492E-10,46.916,249.250
-2.473E-10,46.973,247.255
-2.451E-10,46.994,245.060
-2.431E-10,47.003,243.050
-2.415E-10,47.012,241.468
-2.404E-10,47.076,240.405
-2.393E-10,47.157,239.338
-2.378E-10,47.255,237.795
-2.355E-10,47.361,235.500
-2.324E-10,47.498,232.366
-2.283E-10,47.595,228.335
-2.237E-10,47.648,223.740
-2.194E-10,47.680,219.374
-2.157E-10,47.729,215.714
-2.127E-10,47.808,212.701
-2.099E-10,47.844,209.918
-2.073E-10,47.873,207.262
-2.049E-10,47.889,204.921
-2.031E-10,47.885,203.104
-2.018E-10,47.883,201.848
-2.011E-10,47.887,201.121
-2.008E-10,47.885,200.755
-2.006E-10,47.899,200.622
-2.005E-10,47.936,200.514
-2.001E-10,47.974,200.127
-1.993E-10,48.009,199.345
-1.982E-10,48.034,198.217
-1.969E-10,48.057,196.917
-1.956E-10,48.080,195.636
-1.944E-10,48.115,194.435
-1.932E-10,48.173,193.209
-1.917E-10,48.232,191.704
-1.898E-10,48.284,189.779
-1.876E-10,48.313,187.592
-1.854E-10,48.342,185.379
-1.833E-10,48.376,183.334
-1.814E-10,48.403,181.430
-1.798E-10,48.432,179.759
-1.782E-10,48.462,178.229
-1.768E-10,48.501,176.761
-1.753E-10,48.540,175.265
-1.737E-10,48.583,173.657
-1.719E-10,48.619,171.883
-1.700E-10,48.648,170.044
-1.683E-10,48.673,168.276
-1.667E-10,48.690,166.677
-1.652E-10,48.719,165.227
-1.640E-10,48.741,163.979
-1.628E-10,48.763,162.836
-1.618E-10,48.785,161.757
-1.607E-10,48.807,160.735
-1.597E-10,48.845,159.739
-1.586E-10,48.887,158.616
-1.573E-10,48.938,157.283
-1.557E-10,48.973,155.722
-1.540E-10,48.991,154.027
-1.524E-10,49.021,152.430
-1.510E-10,49.059,150.997
-1.497E-10,49.078,149.662
-1.484E-10,49.094,148.430
-1.473E-10,49.124,147.341
-1.463E-10,49.148,146.333
-1.454E-10,49.174,145.351
-1.444E-10,49.222,144.397
-1.433E-10,49.269,143.332
-1.421E-10,49.304,142.122
-1.409E-10,49.339,140.857
-1.396E-10,49.382,139.585
-1.383E-10,49.418,138.345
-1.371E-10,49.462,137.143
-1.360E-10,49.497,135.989
-1.349E-10,49.510,134.938
-1.340E-10,49.541,134.028
-1.333E-10,49.581,133.256
-1.326E-10,49.612,132.552
-1.319E-10,49.643,131.906
-1.313E-10,49.668,131.331
-1.308E-10,49.708,130.813
-1.303E-10,49.749,130.333
-1.299E-10,49.796,129.909
-1.295E-10,49.845,129.533
-1.292E-10,49.914,129.202
-1.289E-10,49.978,128.946
-1.288E-10,50.023,128.807
-1.288E-10,50.077,128.798
-1.290E-10,50.126,128.962
-1.293E-10,50.170,129.295
-1.298E-10,50.195,129.768
-1.304E-10,50.242,130.359
-1.311E-10,50.278,131.093
-1.319E-10,50.298,131.912
-1.328E-10,50.308,132.789
-1.336E-10,50.316,133.615
-1.344E-10,50.330,134.366
-1.351E-10,50.350,135.057
-1.358E-10,50.392,135.759
-1.366E-10,50.442,136.638
-1.378E-10,50.500,137.784
-1.393E-10,50.564,139.282
-1.412E-10,50.626,141.152
-1.434E-10,50.675,143.394
-1.458E-10,50.737,145.826
-1.484E-10,50.796,148.391
-1.512E-10,50.877,151.201
-1.544E-10,50.952,154.428
-1.581E-10,51.017,158.147
-1.622E-10,51.068,162.215
-1.664E-10,51.145,166.380
-1.707E-10,51.226,170.685
-1.754E-10,51.305,175.374
-1.806E-10,51.386,180.577
-1.861E-10,51.440,186.087
-1.915E-10,51.499,191.455
-1.967E-10,51.567,196.668
-2.019E-10,51.668,201.873
-2.076E-10,51.752,207.626
-2.139E-10,51.803,213.924
-2.202E-10,51.866,220.183
-2.261E-10,51.919,226.093
-2.317E-10,52.016,231.693
-2.376E-10,52.110,237.590
-2.442E-10,52.228,244.238
-2.519E-10,52.319,251.864
-2.601E-10,52.369,260.126
-2.679E-10,52.394,267.898
-2.743E-10,52.415,274.258
-2.791E-10,52.445,279.062
-2.826E-10,52.468,282.603
-2.853E-10,52.494,285.332
-2.877E-10,52.529,287.744
-2.902E-10,52.568,290.215
-2.928E-10,52.600,292.844
-2.956E-10,52.641,295.631
-2.986E-10,52.682,298.647
-3.018E-10,52.715,301.831
-3.050E-10,52.745,304.975
-3.080E-10,52.772,307.965
-3.107E-10,52.793,310.704
-3.131E-10,52.801,313.138
-3.153E-10,52.805,315.270
-3.167E-10,52.807,316.704
-3.175E-10,52.808,317.478
-3.179E-10,52.806,317.853
-3.180E-10,52.807,317.963
-3.179E-10,52.820,317.917
-3.179E-10,52.834,317.891
-3.182E-10,52.846,318.235
-3.189E-10,52.854,318.908
-3.197E-10,52.858,319.670
-3.203E-10,52.861,320.331
-3.209E-10,52.876,320.898
-3.216E-10,52.913,321.634
-3.228E-10,52.954,322.840
-3.247E-10,53.007,324.683
-3.272E-10,53.044,327.238
-3.304E-10,53.094,330.352
-3.339E-10,53.135,333.875
-3.376E-10,53.165,337.562
-3.411E-10,53.208,341.082
-3.445E-10,53.251,344.451
-3.478E-10,53.279,347.755
-3.509E-10,53.311,350.888
-3.538E-10,53.329,353.778
-3.563E-10,53.362,356.283
-3.585E-10,53.373,358.458
-3.604E-10,53.402,360.369
-3.622E-10,53.439,362.231
-3.643E-10,53.493,364.321
-3.669E-10,53.545,366.905
-3.700E-10,53.600,370.032
-3.736E-10,53.644,373.600
-3.773E-10,53.689,377.328
-3.810E-10,53.745,380.995
-3.846E-10,53.782,384.642
-3.881E-10,53.821,388.104
-3.913E-10,53.869,391.350
-3.946E-10,53.928,394.581
-3.979E-10,53.990,397.911
-4.014E-10,54.054,401.444
-4.052E-10,54.108,405.228
-4.091E-10,54.151,409.060
-4.127E-10,54.184,412.679
-4.159E-10,54.215,415.876
-4.185E-10,54.245,418.537
-4.207E-10,54.279,420.747
-4.227E-10,54.327,422.708
-4.247E-10,54.382,424.739
-4.270E-10,54.430,427.031
-4.296E-10,54.503,429.567
-4.325E-10,54.559,432.466
-4.356E-10,54.613,435.600
-4.387E-10,54.658,438.714
-4.418E-10,54.699,441.782
-4.443E-10,54.754,444.344
-4.467E-10,54.793,446.689
-4.488E-10,54.810,448.801
-4.505E-10,54.816,450.475
-4.516E-10,54.823,451.586
-4.522E-10,54.851,452.223
-4.527E-10,54.867,452.715
-4.532E-10,54.886,453.190
-4.536E-10,54.889,453.622
-4.540E-10,54.904,453.994
-4.542E-10,54.942,454.249
-4.545E-10,54.966,454.547
-4.550E-10,55.001,455.036
-4.557E-10,55.041,455.678
-4.565E-10,55.091,456.480
-4.574E-10,55.137,457.391
-4.583E-10,55.173,458.278
-4.591E-10,55.212,459.077
-4.597E-10,55.258,459.707
-4.602E-10,55.287,460.215
-4.606E-10,55.342,460.625
-4.610E-10,55.373,460.960
-4.612E-10,55.389,461.214
-4.614E-10,55.406,461.382
-4.615E-10,55.430,461.487
-4.616E-10,55.444,461.562
-4.616E-10,55.453,461.609
-4.616E-10,55.473,461.641
-4.617E-10,55.518,461.668
-4.617E-10,55.574,461.705
-4.617E-10,55.614,461.749
-4.618E-10,55.669,461.800
-4.618E-10,55.781,461.843
-4.619E-10,55.871,461.882
-4.619E-10,55.925,461.913
-4.619E-10,55.940,461.931
-4.619E-10,55.977,461.936
-4.619E-10,56.027,461.946
-4.620E-10,56.064,461.951
-4.619E-10,56.116,461.948
-4.619E-10,56.195,461.949
-4.619E-10,56.295,461.950
-4.619E-10,56.412,461.950
-4.619E-10,56.511,461.948
-4.620E-10,56.554,461.951
-4.619E-10,56.575,461.949
-4.619E-10,56.602,461.944
-4.619E-10,56.627,461.939
-4.619E-10,56.666,461.932
-4.619E-10,56.726,461.923
-4.619E-10,56.802,461.915
-4.619E-10,56.884,461.900
-4.619E-10,56.969,461.866
-4.618E-10,57.032,461.793
-4.617E-10,57.084,461.660
-4.614E-10,57.130,461.446
-4.611E-10,57.186,461.125
-4.607E-10,57.259,460.667
-4.600E-10,57.339,460.016
-4.590E-10,57.413,459.029
-4.576E-10,57.486,457.552
-4.556E-10,57.561,455.554
-4.530E-10,57.639,452.994
-4.499E-10,57.704,449.908
-4.465E-10,57.760,446.513
-4.430E-10,57.782,443.044
-4.398E-10,57.793,439.817
-4.374E-10,57.797,437.369
-4.358E-10,57.810,435.763
-4.348E-10,57.797,434.789
-4.343E-10,57.802,434.312
-4.340E-10,57.854,434.039
-4.334E-10,57.912,433.388
-4.319E-10,57.968,431.892
-4.297E-10,58.015,429.693
-4.270E-10,58.062,427.039
-4.242E-10,58.115,424.170
-4.211E-10,58.243,421.083
-4.170E-10,58.397,416.984
-4.111E-10,58.516,411.084
-4.037E-10,58.620,403.733
-3.955E-10,58.728,395.544
-3.870E-10,58.812,387.025
-3.786E-10,58.893,378.640
-3.707E-10,58.964,370.716
-3.633E-10,59.048,363.291
-3.561E-10,59.121,356.148
-3.491E-10,59.180,349.105
-3.424E-10,59.239,342.401
-3.361E-10,59.309,336.076
-3.300E-10,59.385,329.991
-3.237E-10,59.463,323.733
-3.171E-10,59.510,317.105
-3.104E-10,59.544,310.441
-3.046E-10,59.604,304.578
-2.992E-10,59.659,299.203
-2.941E-10,59.692,294.056
-2.893E-10,59.710,289.312
-2.851E-10,59.744,285.134
-2.814E-10,59.782,281.401
-2.780E-10,59.814,277.968
-2.746E-10,59.850,274.621
-2.712E-10,59.886,271.246
-2.678E-10,59.917,267.842
-2.645E-10,59.948,264.515
-2.614E-10,59.984,261.357
-2.582E-10,60.032,258.173
-2.548E-10,60.066,254.785
-2.512E-10,60.099,251.206
-2.475E-10,60.140,247.547
-2.440E-10,60.176,243.995
-2.406E-10,60.211,240.585
-2.374E-10,60.223,237.352
-2.345E-10,60.249,234.460
-2.319E-10,60.292,231.891
-2.293E-10,60.319,229.307
-2.267E-10,60.333,226.654
-2.242E-10,60.338,224.179
-2.220E-10,60.381,221.954
-2.198E-10,60.414,219.823
-2.177E-10,60.442,217.651
-2.154E-10,60.474,215.445
-2.132E-10,60.509,213.181
-2.108E-10,60.537,210.835
-2.085E-10,60.567,208.457
-2.061E-10,60.587,206.134
-2.039E-10,60.622,203.906
-2.018E-10,60.638,201.807
-1.999E-10,60.658,199.911
-1.982E-10,60.695,198.229
-1.965E-10,60.724,196.546
-1.948E-10,60.740,194.836
-1.932E-10,60.738,193.250
-1.920E-10,60.755,191.953
-1.909E-10,60.788,190.884
-1.898E-10,60.818,189.806
-1.886E-10,60.844,188.637
-1.874E-10,60.864,187.416
-1.862E-10,60.869,186.232
-1.852E-10,60.887,185.196
-1.843E-10,60.906,184.326
-1.836E-10,60.926,183.584
-1.829E-10,60.936,182.859
-1.822E-10,60.958,182.198
-1.816E-10,60.991,181.571
-1.809E-10,61.034,180.924
-1.802E-10,61.048,180.244
-1.795E-10,61.084,179.513
-1.788E-10,61.118,178.783
-1.781E-10,61.147,178.097
-1.775E-10,61.179,177.479
-1.769E-10,61.203,176.945
-1.765E-10,61.246,176.542
-1.763E-10,61.266,176.250
-1.761E-10,61.301,176.070
-1.760E-10,61.336,175.997
-1.760E-10,61.364,176.035
-1.762E-10,61.390,176.183
-1.764E-10,61.404,176.436
-1.768E-10,61.410,176.753
-1.771E-10,61.408,177.120
-1.775E-10,61.416,177.506
-1.779E-10,61.409,177.883
-1.782E-10,61.414,178.230
-1.786E-10,61.420,178.577
-1.789E-10,61.414,178.912
-1.793E-10,61.413,179.256
-1.796E-10,61.408,179.619
-1.800E-10,61.421,179.964
-1.803E-10,61.473,180.334
-1.809E-10,61.536,180.880
-1.818E-10,61.600,181.799
-1.832E-10,61.666,183.166
-1.849E-10,61.712,184.899
-1.869E-10,61.759,186.908
-1.891E-10,61.803,189.096
-1.915E-10,61.836,191.456
-1.938E-10,61.867,193.776
-1.960E-10,61.897,196.038
-1.982E-10,61.938,198.231
-2.005E-10,61.972,200.475
-2.029E-10,62.014,202.854
-2.054E-10,62.047,205.420
-2.081E-10,62.087,208.134
-2.110E-10,62.116,210.970
-2.139E-10,62.144,213.866
-2.166E-10,62.173,216.646
-2.193E-10,62.213,219.331
-2.221E-10,62.241,222.104
-2.249E-10,62.265,224.944
-2.278E-10,62.311,227.798
-2.308E-10,62.361,230.823
-2.342E-10,62.389,234.204
-2.378E-10,62.426,237.782
-2.414E-10,62.456,241.417
-2.450E-10,62.492,244.988
-2.485E-10,62.544,248.535
-2.524E-10,62.616,252.423
-2.572E-10,62.672,257.163
-2.627E-10,62.731,262.728
-2.687E-10,62.774,268.720
-2.746E-10,62.812,274.637
-2.801E-10,62.856,280.135
-2.853E-10,62.906,285.346
-2.906E-10,62.967,290.601
-2.963E-10,63.041,296.256
-3.026E-10,63.089,302.592
-3.094E-10,63.138,309.368
-3.163E-10,63.184,316.258
-3.228E-10,63.235,322.819
-3.291E-10,63.298,329.057
-3.354E-10,63.355,335.423
-3.421E-10,63.414,342.063
-3.489E-10,63.478,348.939
-3.562E-10,63.543,356.152
-3.636E-10,63.603,363.633
-3.713E-10,63.661,371.252
-3.789E-10,63.735,378.876
-3.867E-10,63.805,386.693
-3.948E-10,63.873,394.846
-4.032E-10,63.916,403.199
-4.111E-10,63.976,411.109
-4.186E-10,64.042,418.609
-4.259E-10,64.097,425.897
-4.332E-10,64.165,433.232
-4.407E-10,64.216,440.730
-4.479E-10,64.257,447.872
-4.538E-10,64.290,453.823
-4.579E-10,64.348,457.949
-4.604E-10,64.383,460.379
-4.615E-10,64.431,461.508
-4.619E-10,64.491,461.875
-4.620E-10,64.533,461.961
-4.620E-10,64.582,461.980
-4.620E-10,64.628,461.988
-4.620E-10,64.666,461.996
-4.620E-10,64.707,461.999
-4.620E-10,64.760,462.004
-4.620E-10,64.819,462.007
-4.620E-10,64.883,462.010
-4.620E-10,64.930,462.014
-4.620E-10,64.984,462.014
-4.620E-10,65.036,462.016
-4.620E-10,65.088,462.016
-4.620E-10,65.129,462.020
-4.620E-10,65.175,462.021
-4.620E-10,65.202,462.025
-4.620E-10,65.239,462.026
-4.620E-10,65.286,462.019
-4.620E-10,65.337,462.025
-4.620E-10,65.391,462.031
-4.620E-10,65.455,462.032
-4.620E-10,65.525,462.028
-4.620E-10,65.594,462.028
-4.620E-10,65.686,462.029
-4.620E-10,65.791,462.031
-4.620E-10,65.897,462.029
-4.620E-10,65.994,462.029
-4.620E-10,66.072,462.034
-4.620E-10,66.156,462.029
-4.620E-10,66.214,462.027
-4.620E-10,66.273,462.029
-4.620E-10,66.315,462.032
-4.620E-10,66.346,462.028
-4.620E-10,66.383,462.028
-4.620E-10,66.457,462.031
-4.620E-10,66.542,462.029
-4.620E-10,66.618,462.026
-4.620E-10,66.676,462.031
-4.620E-10,66.713,462.031
-4.620E-10,66.741,462.035
-4.620E-10,66.774,462.030
-4.620E-10,66.801,462.031
-4.620E-10,66.821,462.035
-4.620E-10,66.833,462.037
-4.620E-10,66.865,462.034
-4.620E-10,66.918,462.036
-4.620E-10,66.964,462.036
-4.620E-10,67.033,462.034
-4.620E-10,67.112,462.034
-4.620E-10,67.172,462.036
-4.620E-10,67.211,462.033
-4.620E-10,67.258,462.036
-4.620E-10,67.319,462.036
-4.620E-10,67.380,462.035
-4.620E-10,67.441,462.038
-4.620E-10,67.493,462.040
-4.620E-10,67.551,462.039
-4.620E-10,67.592,462.039
-4.620E-10,67.639,462.039
-4.620E-10,67.711,462.042
-4.620E-10,67.776,462.038
-4.620E-10,67.836,462.039
-4.620E-10,67.892,462.042
-4.620E-10,67.946,462.040
-4.620E-10,68.007,462.045
-4.620E-10,68.066,462.044
-4.620E-10,68.126,462.037
-4.620E-10,68.194,462.044
-4.620E-10,68.228,462.041
-4.620E-10,68.245,462.046
-4.620E-10,68.246,462.047
-4.620E-10,68.233,462.043
-4.620E-10,68.233,462.039
-4.620E-10,68.230,462.042
-4.620E-10,68.236,462.046
-4.620E-10,68.269,462.044
-4.620E-10,68.452,462.046
-4.620E-10,68.667,462.044
-4.620E-10,68.837,462.045
-4.620E-10,68.921,462.050
-4.620E-10,69.004,462.046
-4.620E-10,69.110,462.046
-4.620E-10,69.269,462.045
-4.620E-10,69.394,462.043
-4.620E-10,69.470,462.042
-4.620E-10,69.519,462.041
-4.620E-10,69.568,462.049
-4.620E-10,69.645,462.042
-4.620E-10,69.714,462.045
-4.620E-10,69.780,462.043
-4.620E-10,69.841,462.046
-4.620E-10,69.947,462.046
-4.620E-10,70.079,462.044
-4.620E-10,70.243,462.042
-4.620E-10,70.411,462.043
-4.620E-10,70.539,462.040
-4.620E-10,70.645,462.040
-4.620E-10,70.750,462.036
-4.620E-10,70.874,462.035
-4.620E-10,71.012,462.031
-4.620E-10,71.121,462.018
-4.620E-10,71.191,461.975
-4.608E-10,71.283,460.830
-4.541E-10,71.415,454.133
-4.418E-10,71.524,441.829
-4.281E-10,71.638,428.088
-4.141E-10,71.751,414.094
-4.000E-10,71.875,399.966
-3.856E-10,72.028,385.558
-3.705E-10,72.171,370.482
-3.549E-10,72.268,354.897
-3.398E-10,72.356,339.783
-3.260E-10,72.485,325.955
-3.130E-10,72.589,313.000
-3.011E-10,72.638,301.126
-2.910E-10,72.650,291.015
-2.830E-10,72.657,283.025
-2.772E-10,72.674,277.240
-2.732E-10,72.716,273.183
-2.700E-10,72.788,270.010
-2.670E-10,72.836,266.950
-2.638E-10,72.862,263.843
-2.610E-10,72.877,260.966
-2.586E-10,72.890,258.588
-2.568E-10,72.903,256.804
-2.556E-10,72.921,255.579
-2.547E-10,72.949,254.718
-2.541E-10,72.963,254.085
-2.536E-10,72.967,253.573
-2.532E-10,72.988,253.178
-2.529E-10,73.001,252.943
-2.528E-10,73.008,252.823
-2.528E-10,73.022,252.822
-2.529E-10,73.028,252.911
-2.531E-10,73.044,253.074
-2.533E-10,73.066,253.296
-2.536E-10,73.087,253.558
-2.538E-10,73.114,253.825
-2.541E-10,73.150,254.107
-2.544E-10,73.180,254.433
-2.548E-10,73.203,254.829
-2.553E-10,73.227,255.314
-2.559E-10,73.257,255.909
-2.566E-10,73.291,256.591
-2.574E-10,73.305,257.381
-2.583E-10,73.316,258.279
-2.592E-10,73.334,259.207
-2.601E-10,73.338,260.139
-2.610E-10,73.341,261.027
-2.619E-10,73.341,261.878
-2.626E-10,73.347,262.645
-2.634E-10,73.360,263.404
-2.642E-10,73.366,264.171
-2.650E-10,73.375,264.980
-2.658E-10,73.385,265.830
-2.667E-10,73.404,266.717
-2.677E-10,73.431,267.723
-2.688E-10,73.456,268.837
-2.701E-10,73.472,270.087
-2.714E-10,73.487,271.398
-2.727E-10,73.496,272.711
-2.740E-10,73.508,273.980
-2.752E-10,73.536,275.198
-2.765E-10,73.603,276.526
-2.784E-10,73.663,278.417
-2.810E-10,73.687,281.000
-2.838E-10,73.697,283.845
-2.865E-10,73.714,286.476
-2.888E-10,73.757,288.801
-2.913E-10,73.839,291.296
-2.946E-10,73.942,294.600
-2.993E-10,74.026,299.303
-3.053E-10,74.088,305.335
-3.122E-10,74.145,312.162
-3.193E-10,74.202,319.264
-3.259E-10,74.263,325.880
-3.324E-10,74.321,332.387
-3.391E-10,74.391,339.082
-3.463E-10,74.473,346.272
-3.541E-10,74.530,354.115
-3.623E-10,74.587,362.279
-3.704E-10,74.664,370.390
-3.787E-10,74.736,378.685
-3.873E-10,74.781,387.323
-3.957E-10,74.814,395.672
-4.032E-10,74.828,403.163
-4.092E-10,74.829,409.211
-4.136E-10,74.835,413.635
-4.166E-10,74.833,416.621
-4.184E-10,74.838,418.445
-4.195E-10,74.834,419.527
-4.202E-10,74.854,420.210
-4.212E-10,74.927,421.152
-4.239E-10,75.006,423.908
-4.291E-10,75.047,429.136
-4.358E-10,75.083,435.801
-4.428E-10,75.120,442.783
-4.491E-10,75.143,449.086
-4.542E-10,75.195,454.184
-4.580E-10,75.256,458.012
-4.606E-10,75.308,460.590
-4.617E-10,75.358,461.733
-4.620E-10,75.410,461.975
-4.620E-10,75.456,462.007
-4.620E-10,75.492,462.017
-4.620E-10,75.529,462.023
-4.620E-10,75.557,462.031
-4.620E-10,75.573,462.036
-4.620E-10,75.590,462.034
-4.620E-10,75.627,462.034
-4.620E-10,75.699,462.040
-4.620E-10,75.768,462.035
-4.620E-10,75.835,462.037
-4.620E-10,75.886,462.040
-4.620E-10,75.952,462.042
-4.620E-10,76.045,462.046
-4.620E-10,76.121,462.046
-4.620E-10,76.204,462.046
-4.620E-10,76.298,462.047
-4.621E-10,76.387,462.053
-4.621E-10,76.477,462.052
-4.621E-10,76.596,462.053
-4.621E-10,76.761,462.053
-4.620E-10,76.923,462.049
-4.621E-10,77.132,462.052
-4.621E-10,77.346,462.052
-4.621E-10,77.553,462.051
-4.621E-10,77.809,462.050
-4.621E-10,78.128,462.051
-4.621E-10,78.426,462.053
-4.621E-10,78.677,462.053
-4.620E-10,78.890,462.049
-4.621E-10,79.081,462.053
-4.621E-10,79.252,462.051
-4.621E-10,79.371,462.050
-4.620E-10,79.458,462.046
-4.621E-10,79.535,462.053
-4.621E-10,79.594,462.052
-4.620E-10,79.637,462.050
-4.621E-10,79.696,462.052
-4.621E-10,79.783,462.054
-4.621E-10,79.911,462.055
-4.621E-10,80.089,462.057
-4.621E-10,80.336,462.055
-4.621E-10,80.527,462.059
-4.621E-10,80.679,462.059
-4.621E-10,80.752,462.064
-4.621E-10,80.793,462.062
-4.621E-10,80.803,462.060
-4.621E-10,80.807,462.062
-4.621E-10,80.808,462.058
-4.621E-10,80.808,462.058
-4.621E-10,80.807,462.062
-4.621E-10,80.808,462.058
-4.621E-10,80.807,462.063
-4.621E-10,80.807,462.058
-4.621E-10,80.807,462.058
-4.621E-10,80.806,462.061
-4.621E-10,80.805,462.061
-4.621E-10,80.806,462.060
